#Hz,   erg/cm^2/s/Hz, erg/cm^2/s, without ebl, without ebl vFv
9.000000 -25.033454 -16.033454 -25.033454 -16.033454
9.182417 -24.672781 -15.490364 -24.672781 -15.490364
9.364834 -24.544727 -15.179892 -24.544727 -15.179892
9.547252 -24.575732 -15.028481 -24.575732 -15.028481
9.729669 -24.662755 -14.933086 -24.662755 -14.933086
9.912086 -24.765754 -14.853668 -24.765754 -14.853668
10.094503 -24.872723 -14.778220 -24.872723 -14.778220
10.276921 -24.982161 -14.705240 -24.982161 -14.705240
10.459338 -25.091615 -14.632277 -25.091615 -14.632277
10.641755 -25.201073 -14.559318 -25.201073 -14.559318
10.824172 -25.310538 -14.486366 -25.310538 -14.486366
11.006590 -25.420025 -14.413435 -25.420025 -14.413435
11.189007 -25.529600 -14.340593 -25.529600 -14.340593
11.371424 -25.639251 -14.267827 -25.639251 -14.267827
11.553841 -25.748585 -14.194744 -25.748585 -14.194744
11.736259 -25.857808 -14.121549 -25.857808 -14.121549
11.918676 -25.967215 -14.048539 -25.967215 -14.048539
12.101093 -26.076667 -13.975574 -26.076667 -13.975574
12.283510 -26.186124 -13.902614 -26.186124 -13.902614
12.465927 -26.295585 -13.829657 -26.295585 -13.829657
12.648345 -26.405060 -13.756715 -26.405060 -13.756715
12.830762 -26.514587 -13.683825 -26.514587 -13.683825
13.013179 -26.624239 -13.611059 -26.624239 -13.611059
13.195596 -26.733734 -13.538138 -26.733734 -13.538138
13.378014 -26.842931 -13.464917 -26.842931 -13.464917
13.560431 -26.952276 -13.391845 -26.952276 -13.391845
13.742848 -27.061723 -13.318875 -27.061723 -13.318875
13.925265 -27.171178 -13.245913 -27.171178 -13.245913
14.107683 -27.280638 -13.172955 -27.280638 -13.172955
14.290100 -27.390107 -13.100007 -27.390107 -13.100007
14.472517 -27.499606 -13.027089 -27.499606 -13.027089
14.654934 -27.609211 -12.954277 -27.609211 -12.954277
14.837352 -27.718833 -12.881481 -27.718833 -12.881481
15.019769 -27.828101 -12.808332 -27.828101 -12.808332
15.202186 -27.937366 -12.735180 -27.937366 -12.735180
15.384603 -28.046797 -12.662194 -28.046797 -12.662194
15.567021 -28.156257 -12.589236 -28.156257 -12.589236
15.749438 -28.265721 -12.516283 -28.265721 -12.516283
15.931855 -28.375194 -12.443339 -28.375194 -12.443339
16.114272 -28.484686 -12.370413 -28.484686 -12.370413
16.296689 -28.594249 -12.297559 -28.594249 -12.297559
16.479107 -28.703927 -12.224820 -28.703927 -12.224820
16.661524 -28.813361 -12.151837 -28.813361 -12.151837
16.843941 -28.922587 -12.078646 -28.922587 -12.078646
17.026358 -29.032001 -12.005642 -29.032001 -12.005642
17.208776 -29.141491 -11.932716 -29.141491 -11.932716
17.391193 -29.250998 -11.859805 -29.250998 -11.859805
17.573610 -29.360520 -11.786910 -29.360520 -11.786910
17.756027 -29.470067 -11.714040 -29.470067 -11.714040
17.938445 -29.579672 -11.641228 -29.579672 -11.641228
18.120862 -29.689420 -11.568558 -29.689420 -11.568558
18.303279 -29.799128 -11.495849 -29.799128 -11.495849
18.485696 -29.908521 -11.422825 -29.908521 -11.422825
18.668114 -30.018043 -11.349929 -30.018043 -11.349929
18.850531 -30.127749 -11.277218 -30.127749 -11.277218
19.032948 -30.237534 -11.204586 -30.237534 -11.204586
19.215365 -30.347396 -11.132031 -30.347396 -11.132031
19.397782 -30.457360 -11.059577 -30.457360 -11.059577
19.580200 -30.567460 -10.987260 -30.567460 -10.987260
19.762617 -30.677789 -10.915172 -30.677789 -10.915172
19.945034 -30.788365 -10.843330 -30.788365 -10.843330
20.127451 -30.898827 -10.771376 -30.898827 -10.771376
20.309869 -31.009438 -10.699569 -31.009438 -10.699569
20.492286 -31.120545 -10.628259 -31.120545 -10.628259
20.674703 -31.232075 -10.557372 -31.232075 -10.557372
20.857120 -31.344071 -10.486950 -31.344071 -10.486950
21.039538 -31.456631 -10.417094 -31.456631 -10.417094
21.221955 -31.569884 -10.347929 -31.569884 -10.347929
21.404372 -31.684013 -10.279641 -31.684013 -10.279641
21.586789 -31.799267 -10.212477 -31.799267 -10.212477
21.769207 -31.915551 -10.146344 -31.915551 -10.146344
21.951624 -32.032949 -10.081325 -32.032949 -10.081325
22.134041 -32.152222 -10.018181 -32.152222 -10.018181
22.316458 -32.273662 -9.957204 -32.273662 -9.957204
22.498875 -32.397575 -9.898700 -32.397575 -9.898700
22.681293 -32.524434 -9.843141 -32.524434 -9.843141
22.863710 -32.654815 -9.791105 -32.654815 -9.791105
23.046127 -32.789425 -9.743298 -32.789425 -9.743298
23.228544 -32.929210 -9.700666 -32.929210 -9.700666
23.410962 -33.075112 -9.664151 -33.075112 -9.664151
23.593379 -33.227802 -9.634423 -33.227802 -9.634423
23.775796 -33.389272 -9.613476 -33.389272 -9.613476
23.958213 -33.561867 -9.603654 -33.561867 -9.603654
24.140631 -33.748045 -9.607414 -33.748045 -9.607414
24.323048 -33.951216 -9.628168 -33.951216 -9.628168
24.505465 -34.175730 -9.670265 -34.175730 -9.670265
24.687882 -34.426605 -9.738722 -34.426604 -9.738722
24.870300 -34.708894 -9.838594 -34.708735 -9.838436
25.052717 -35.028661 -9.975944 -35.025955 -9.973238
25.235134 -35.390423 -10.155289 -35.377064 -10.141930
25.417551 -35.800908 -10.383357 -35.756645 -10.339094
25.599968 -36.292070 -10.692101 -36.168414 -10.568445
25.782386 -36.918679 -11.136293 -36.617576 -10.835190
25.964803 -37.723195 -11.758392 -37.108970 -11.144167
26.147220 -38.693378 -12.546158 -37.648971 -11.501751
26.329637 -39.750166 -13.420529 -38.244916 -11.915278
26.512055 -40.818567 -14.306512 -38.906865 -12.394810
26.694472 -41.897604 -15.203132 -39.647272 -12.952800
26.876889 -43.176070 -16.299181 -40.458533 -13.581644
27.059306 -45.032251 -17.972945 -41.380511 -14.321204
27.241724 -47.984781 -20.743057 -42.435852 -15.194129
27.424141 -53.780743 -26.356602 -43.603714 -16.179573
27.606558 -67.850102 -40.243544 -44.936224 -17.329665
27.788975 -102.656662 -74.867687 -46.454980 -18.666005
27.971393 -172.372038 -144.400645 -48.229354 -20.257961
28.153810 -266.459085 -238.305275 -50.207745 -22.053935
